# Wavelength   laser   raw filt
# nm   uJ  V   V
# Filtered data in range (1.0:10.0) MHz
# First col is wavelength in [nm]
# Second col is laser energy in [uJ]
# Third col is normalized (to laser energy) raw PA amp in [V]
# Forth col is normalized (to laser energy) filt PA amp in [V]
9.000e+02 4.940e+01 2.184e-04 1.368e-04
8.900e+02 2.340e+02 8.300e-05 7.042e-05
8.800e+02 4.732e+02 6.794e-05 6.303e-05
8.700e+02 8.861e+02 6.745e-05 6.486e-05
8.600e+02 1.606e+03 7.509e-05 7.787e-05
8.500e+02 2.378e+03 7.766e-05 8.713e-05
8.400e+02 3.438e+03 1.124e-04 1.115e-04
8.300e+02 0.000e+00 0.000e+00 0.000e+00
8.200e+02 0.000e+00 0.000e+00 0.000e+00
8.100e+02 0.000e+00 0.000e+00 0.000e+00
8.000e+02 0.000e+00 0.000e+00 0.000e+00
7.900e+02 0.000e+00 0.000e+00 0.000e+00
7.800e+02 0.000e+00 0.000e+00 0.000e+00
7.700e+02 0.000e+00 0.000e+00 0.000e+00
7.600e+02 0.000e+00 0.000e+00 0.000e+00
7.500e+02 0.000e+00 0.000e+00 0.000e+00
7.400e+02 0.000e+00 0.000e+00 0.000e+00
7.300e+02 0.000e+00 0.000e+00 0.000e+00
7.200e+02 0.000e+00 0.000e+00 0.000e+00
7.100e+02 0.000e+00 0.000e+00 0.000e+00
7.000e+02 0.000e+00 0.000e+00 0.000e+00
6.900e+02 0.000e+00 0.000e+00 0.000e+00
