# Wavelength   laser   raw filt
# nm   uJ  V   V
# Filtered data in range (1.0:10.0) MHz
# First col is wavelength in [nm]
# Second col is laser energy in [uJ]
# Third col is normalized (to laser energy) raw PA amp in [V]
# Forth col is normalized (to laser energy) filt PA amp in [V]
9.500e+02 1.031e+03 1.193e-05 6.155e-06
9.400e+02 1.068e+03 2.080e-05 1.683e-05
9.300e+02 1.116e+03 1.141e-05 7.449e-06
9.200e+02 1.039e+03 2.408e-05 1.931e-05
9.100e+02 1.061e+03 1.810e-05 1.147e-05
9.000e+02 1.056e+03 2.554e-05 2.198e-05
8.900e+02 1.123e+03 2.018e-05 1.590e-05
8.800e+02 1.063e+03 2.516e-05 2.090e-05
8.700e+02 1.077e+03 2.184e-05 1.702e-05
8.600e+02 1.085e+03 2.566e-05 2.138e-05
8.500e+02 1.005e+03 2.319e-05 2.028e-05
8.400e+02 1.024e+03 2.804e-05 2.411e-05
8.300e+02 1.029e+03 1.783e-05 1.246e-05
8.200e+02 1.060e+03 2.769e-05 2.343e-05
8.100e+02 1.214e+03 1.476e-05 1.126e-05
8.000e+02 1.083e+03 2.928e-05 2.627e-05
7.900e+02 1.074e+03 2.049e-05 1.648e-05
7.800e+02 9.684e+02 3.053e-05 2.718e-05
7.700e+02 0.000e+00 0.000e+00 0.000e+00
7.600e+02 0.000e+00 0.000e+00 0.000e+00
7.500e+02 0.000e+00 0.000e+00 0.000e+00
7.400e+02 0.000e+00 0.000e+00 0.000e+00
7.300e+02 0.000e+00 0.000e+00 0.000e+00
7.200e+02 0.000e+00 0.000e+00 0.000e+00
7.100e+02 0.000e+00 0.000e+00 0.000e+00
7.000e+02 0.000e+00 0.000e+00 0.000e+00
6.900e+02 0.000e+00 0.000e+00 0.000e+00
