# Wavelength   laser   raw filt
# nm   uJ  V   V
# Filtered data in range (1.0:10.0) MHz
# First col is wavelength in [nm]
# Second col is laser energy in [uJ]
# Third col is normalized (to laser energy) raw PA amp in [V]
# Forth col is normalized (to laser energy) filt PA amp in [V]
9.500e+02 1.041e+03 1.617e-05 1.427e-05
9.400e+02 1.012e+03 2.580e-05 2.158e-05
9.300e+02 1.025e+03 1.790e-05 1.430e-05
9.200e+02 1.004e+03 2.771e-05 2.214e-05
9.100e+02 1.039e+03 1.808e-05 1.342e-05
9.000e+02 9.996e+02 2.979e-05 2.643e-05
8.900e+02 1.090e+03 1.802e-05 1.459e-05
8.800e+02 1.049e+03 3.085e-05 2.671e-05
8.700e+02 1.109e+03 1.925e-05 1.554e-05
8.600e+02 1.032e+03 3.242e-05 2.900e-05
8.500e+02 9.997e+02 2.828e-05 2.567e-05
8.400e+02 9.949e+02 3.384e-05 3.126e-05
8.300e+02 1.123e+03 1.921e-05 1.417e-05
8.200e+02 1.048e+03 3.356e-05 2.960e-05
8.100e+02 9.746e+02 2.878e-05 2.608e-05
8.000e+02 1.027e+03 3.405e-05 2.913e-05
7.900e+02 9.681e+02 2.541e-05 2.150e-05
7.800e+02 0.000e+00 0.000e+00 0.000e+00
7.700e+02 0.000e+00 0.000e+00 0.000e+00
7.600e+02 0.000e+00 0.000e+00 0.000e+00
7.500e+02 0.000e+00 0.000e+00 0.000e+00
7.400e+02 0.000e+00 0.000e+00 0.000e+00
7.300e+02 0.000e+00 0.000e+00 0.000e+00
7.200e+02 0.000e+00 0.000e+00 0.000e+00
7.100e+02 0.000e+00 0.000e+00 0.000e+00
7.000e+02 0.000e+00 0.000e+00 0.000e+00
6.900e+02 0.000e+00 0.000e+00 0.000e+00
